// thickness-independent fraction of light power (for rudimentary optics) between 0 and 1
simple transmission coefficient:
1

// wavelength-independent absorption coefficient 'a' according to I(z)=I0*exp(-a*z) in [1/m]
lambert beer absorption coefficient:
0

// three-column refractive data for TMM calculations with wavelength [nm], n, k (must be tab-separated)
refractive data:
300	1.98051	0.41966
302	1.98383	0.41954
304	1.98714	0.41942
306	1.99044	0.41931
308	1.99373	0.41921
310	1.99702	0.41912
312	2.00079	0.41911
314	2.00472	0.41913
316	2.00880	0.41918
318	2.01303	0.41927
320	2.01742	0.41939
322	2.02156	0.41963
324	2.02571	0.41993
326	2.02988	0.42029
328	2.03406	0.42071
330	2.03827	0.42119
332	2.04248	0.42212
334	2.04672	0.42325
336	2.05096	0.42457
338	2.05523	0.42609
340	2.05950	0.42779
342	2.06437	0.42992
344	2.06944	0.43232
346	2.07472	0.43499
348	2.08021	0.43793
350	2.08590	0.44113
352	2.09700	0.44477
354	2.11005	0.44872
356	2.12504	0.45299
358	2.14197	0.45759
360	2.16084	0.46251
362	2.18805	0.45635
364	2.21933	0.44672
366	2.25469	0.43360
368	2.29412	0.41702
370	2.33762	0.39695
372	2.36174	0.36977
374	2.38210	0.33791
376	2.39872	0.30136
378	2.41159	0.26013
380	2.42072	0.21420
382	2.41908	0.18618
384	2.41135	0.16101
386	2.39754	0.13867
388	2.37764	0.11918
390	2.35165	0.10253
392	2.33802	0.08702
394	2.32444	0.07377
396	2.31093	0.06280
398	2.29747	0.05410
400	2.28407	0.04768
402	2.27452	0.04049
404	2.26628	0.03457
406	2.25936	0.02991
408	2.25376	0.02651
410	2.24948	0.02437
412	2.24124	0.02109
414	2.23256	0.01828
416	2.22344	0.01592
418	2.21388	0.01403
420	2.20388	0.01260
422	2.19550	0.01084
424	2.18737	0.00929
426	2.17949	0.00793
428	2.17187	0.00678
430	2.16448	0.00582
432	2.15668	0.00498
434	2.14889	0.00431
436	2.14114	0.00382
438	2.13340	0.00349
440	2.12569	0.00334
442	2.12079	0.00286
444	2.11684	0.00239
446	2.11385	0.00193
448	2.11181	0.00147
450	2.11073	0.00102
452	2.10807	0.00092
454	2.10543	0.00083
456	2.10279	0.00076
458	2.10016	0.00069
460	2.09754	0.00063
462	2.09493	0.00058
464	2.09231	0.00053
466	2.08971	0.00049
468	2.08711	0.00045
470	2.08451	0.00041
472	2.08191	0.00038
474	2.07932	0.00035
476	2.07673	0.00032
478	2.07414	0.00030
480	2.07155	0.00028
482	2.06897	0.00026
484	2.06639	0.00024
486	2.06381	0.00023
488	2.06123	0.00021
490	2.05865	0.00020
492	2.05608	0.00019
494	2.05350	0.00018
496	2.05093	0.00018
498	2.04836	0.00017
500	2.04579	0.00017
502	2.04466	0.00016
504	2.04354	0.00015
506	2.04244	0.00015
508	2.04135	0.00014
510	2.04029	0.00013
512	2.03923	0.00013
514	2.03819	0.00012
516	2.03716	0.00011
518	2.03615	0.00011
520	2.03514	0.00010
522	2.03415	0.00010
524	2.03317	0.00009
526	2.03220	0.00009
528	2.03124	0.00008
530	2.03029	0.00008
532	2.02934	0.00007
534	2.02841	0.00007
536	2.02749	0.00006
538	2.02657	0.00006
540	2.02567	0.00006
542	2.02477	0.00005
544	2.02388	0.00005
546	2.02299	0.00005
548	2.02211	0.00004
550	2.02124	0.00004
552	2.02038	0.00004
554	2.01953	0.00003
556	2.01868	0.00003
558	2.01783	0.00003
560	2.01699	0.00003
562	2.01616	0.00002
564	2.01534	0.00002
566	2.01451	0.00002
568	2.01370	0.00002
570	2.01289	0.00002
572	2.01209	0.00001
574	2.01129	0.00001
576	2.01049	0.00001
578	2.00970	0.00001
580	2.00892	0.00001
582	2.00814	0.00000
584	2.00736	0.00000
586	2.00659	0.00000
588	2.00582	0.00000
590	2.00506	0.00000
592	2.00430	0.00000
594	2.00355	0.00000
596	2.00279	0.00000
598	2.00205	0.00000
600	2.00130	0.00000
602	2.00056	0.00000
604	1.99983	0.00000
606	1.99910	0.00000
608	1.99837	0.00000
610	1.99764	0.00000
612	1.99692	0.00000
614	1.99620	0.00000
616	1.99549	0.00000
618	1.99478	0.00000
620	1.99407	0.00000
622	1.99336	0.00000
624	1.99266	0.00000
626	1.99196	0.00000
628	1.99126	0.00000
630	1.99057	0.00000
632	1.98988	0.00000
634	1.98919	0.00000
636	1.98850	0.00000
638	1.98782	0.00000
640	1.98714	0.00000
642	1.98646	0.00000
644	1.98579	0.00000
646	1.98512	0.00000
648	1.98445	0.00000
650	1.98378	0.00000
652	1.98311	0.00000
654	1.98245	0.00000
656	1.98179	0.00000
658	1.98113	0.00000
660	1.98048	0.00000
662	1.97982	0.00000
664	1.97917	0.00000
666	1.97852	0.00000
668	1.97788	0.00000
670	1.97723	0.00000
672	1.97659	0.00000
674	1.97595	0.00000
676	1.97531	0.00000
678	1.97468	0.00000
680	1.97404	0.00001
682	1.97341	0.00001
684	1.97278	0.00001
686	1.97215	0.00001
688	1.97152	0.00001
690	1.97090	0.00001
692	1.97028	0.00001
694	1.96966	0.00001
696	1.96904	0.00002
698	1.96842	0.00002
700	1.96781	0.00002
702	1.96742	0.00002
704	1.96704	0.00002
706	1.96666	0.00002
708	1.96629	0.00002
710	1.96592	0.00001
712	1.96555	0.00001
714	1.96520	0.00001
716	1.96484	0.00001
718	1.96449	0.00001
720	1.96415	0.00001
722	1.96381	0.00001
724	1.96347	0.00001
726	1.96314	0.00001
728	1.96282	0.00001
730	1.96250	0.00001
732	1.96218	0.00001
734	1.96186	0.00001
736	1.96156	0.00001
738	1.96125	0.00001
740	1.96095	0.00001
742	1.96065	0.00001
744	1.96036	0.00001
746	1.96007	0.00001
748	1.95979	0.00001
750	1.95951	0.00001
752	1.95923	0.00001
754	1.95896	0.00000
756	1.95869	0.00000
758	1.95843	0.00000
760	1.95817	0.00000
762	1.95791	0.00000
764	1.95766	0.00000
766	1.95741	0.00000
768	1.95716	0.00000
770	1.95692	0.00000
772	1.95668	0.00000
774	1.95645	0.00000
776	1.95622	0.00000
778	1.95599	0.00000
780	1.95577	0.00000
782	1.95555	0.00000
784	1.95533	0.00000
786	1.95512	0.00000
788	1.95491	0.00000
790	1.95470	0.00000
792	1.95450	0.00000
794	1.95430	0.00000
796	1.95411	0.00000
798	1.95391	0.00000
800	1.95372	0.00000
802	1.95354	0.00000
804	1.95336	0.00000
806	1.95318	0.00000
808	1.95300	0.00000
810	1.95283	0.00000
812	1.95266	0.00000
814	1.95249	0.00000
816	1.95233	0.00000
818	1.95217	0.00000
820	1.95201	0.00000
822	1.95186	0.00000
824	1.95170	0.00000
826	1.95156	0.00000
828	1.95141	0.00000
830	1.95127	0.00000
832	1.95113	0.00000
834	1.95099	0.00000
836	1.95086	0.00000
838	1.95073	0.00000
840	1.95060	0.00000
842	1.95048	0.00000
844	1.95036	0.00000
846	1.95024	0.00000
848	1.95012	0.00000
850	1.95001	0.00000
852	1.94990	0.00000
854	1.94979	0.00000
856	1.94968	0.00000
858	1.94958	0.00000
860	1.94948	0.00000
862	1.94939	0.00000
864	1.94929	0.00000
866	1.94920	0.00000
868	1.94911	0.00000
870	1.94902	0.00000
872	1.94894	0.00000
874	1.94886	0.00000
876	1.94878	0.00000
878	1.94870	0.00000
880	1.94863	0.00000
882	1.94856	0.00000
884	1.94849	0.00000
886	1.94842	0.00000
888	1.94836	0.00000
890	1.94830	0.00000
892	1.94824	0.00000
894	1.94819	0.00000
896	1.94813	0.00000
898	1.94808	0.00000
900	1.94803	0.00000
902	1.94798	0.00000
904	1.94794	0.00000
906	1.94790	0.00000
908	1.94786	0.00000
910	1.94782	0.00000
912	1.94779	0.00000
914	1.94775	0.00000
916	1.94772	0.00000
918	1.94770	0.00000
920	1.94767	0.00000
922	1.94765	0.00000
924	1.94762	0.00000
926	1.94761	0.00000
928	1.94759	0.00000
930	1.94757	0.00000
932	1.94756	0.00000
934	1.94755	0.00000
936	1.94754	0.00000
938	1.94754	0.00000
940	1.94753	0.00000
942	1.94753	0.00000
944	1.94753	0.00000
946	1.94753	0.00000
948	1.94754	0.00000
950	1.94754	0.00000
952	1.94755	0.00000
954	1.94756	0.00000
956	1.94758	0.00000
958	1.94759	0.00000
960	1.94761	0.00000
962	1.94763	0.00000
964	1.94765	0.00000
966	1.94767	0.00000
968	1.94770	0.00000
970	1.94772	0.00001
972	1.94775	0.00001
974	1.94778	0.00001
976	1.94781	0.00001
978	1.94785	0.00001
980	1.94789	0.00001
982	1.94792	0.00001
984	1.94796	0.00001
986	1.94801	0.00001
988	1.94805	0.00001
990	1.94810	0.00001
992	1.94814	0.00001
994	1.94819	0.00001
996	1.94825	0.00001
998	1.94830	0.00001
1000	1.94835	0.00001
1002	1.94827	0.00001
1004	1.94818	0.00001
1006	1.94809	0.00001
1008	1.94801	0.00001
1010	1.94792	0.00001
1012	1.94783	0.00001
1014	1.94775	0.00001
1016	1.94766	0.00001
1018	1.94758	0.00001
1020	1.94749	0.00001
1022	1.94741	0.00001
1024	1.94732	0.00001
1026	1.94724	0.00001
1028	1.94716	0.00001
1030	1.94707	0.00001
1032	1.94699	0.00001
1034	1.94691	0.00001
1036	1.94682	0.00001
1038	1.94674	0.00001
1040	1.94666	0.00001
1042	1.94658	0.00001
1044	1.94650	0.00001
1046	1.94642	0.00001
1048	1.94633	0.00001
1050	1.94625	0.00001
1052	1.94617	0.00001
1054	1.94609	0.00001
1056	1.94601	0.00001
1058	1.94593	0.00001
1060	1.94585	0.00001
1062	1.94578	0.00001
1064	1.94570	0.00001
1066	1.94562	0.00001
1068	1.94554	0.00001
1070	1.94546	0.00001
1072	1.94538	0.00001
1074	1.94531	0.00001
1076	1.94523	0.00001
1078	1.94515	0.00001
1080	1.94508	0.00001
1082	1.94500	0.00001
1084	1.94492	0.00001
1086	1.94485	0.00001
1088	1.94477	0.00001
1090	1.94469	0.00001
1092	1.94462	0.00001
1094	1.94454	0.00001
1096	1.94447	0.00001
1098	1.94439	0.00001
1100	1.94432	0.00001
1102	1.94425	0.00001
1104	1.94417	0.00001
1106	1.94410	0.00001
1108	1.94402	0.00001
1110	1.94395	0.00001
1112	1.94388	0.00001
1114	1.94380	0.00001
1116	1.94373	0.00001
1118	1.94366	0.00001
1120	1.94359	0.00001
1122	1.94351	0.00001
1124	1.94344	0.00001
1126	1.94337	0.00001
1128	1.94330	0.00001
1130	1.94323	0.00001
1132	1.94316	0.00001
1134	1.94309	0.00001
1136	1.94302	0.00001
1138	1.94295	0.00001
1140	1.94288	0.00001
1142	1.94281	0.00001
1144	1.94274	0.00001
1146	1.94267	0.00001
1148	1.94260	0.00001
1150	1.94253	0.00001
1152	1.94246	0.00001
1154	1.94239	0.00001
1156	1.94232	0.00001
1158	1.94225	0.00001
1160	1.94218	0.00002
1162	1.94212	0.00002
1164	1.94205	0.00002
1166	1.94198	0.00002
1168	1.94191	0.00002
1170	1.94184	0.00002
1172	1.94178	0.00002
1174	1.94171	0.00002
1176	1.94164	0.00002
1178	1.94158	0.00002
1180	1.94151	0.00002
1182	1.94144	0.00002
1184	1.94138	0.00002
1186	1.94131	0.00002
1188	1.94125	0.00002
1190	1.94118	0.00002
1192	1.94112	0.00002
1194	1.94105	0.00002
1196	1.94099	0.00002
1198	1.94092	0.00002
1200	1.94086	0.00002
1202	1.94079	0.00002
1204	1.94073	0.00002
1206	1.94066	0.00002
1208	1.94060	0.00002
1210	1.94054	0.00002
1212	1.94047	0.00002
1214	1.94041	0.00002
1216	1.94034	0.00002
1218	1.94028	0.00002
1220	1.94022	0.00002
1222	1.94016	0.00002
1224	1.94009	0.00002
1226	1.94003	0.00002
1228	1.93997	0.00002
1230	1.93991	0.00002
1232	1.93984	0.00002
1234	1.93978	0.00002
1236	1.93972	0.00002
1238	1.93966	0.00002
1240	1.93960	0.00002
1242	1.93954	0.00002
1244	1.93948	0.00002
1246	1.93941	0.00002
1248	1.93935	0.00002
1250	1.93929	0.00002
1252	1.93923	0.00002
1254	1.93917	0.00002
1256	1.93911	0.00002
1258	1.93905	0.00002
1260	1.93899	0.00002
1262	1.93893	0.00002
1264	1.93887	0.00002
1266	1.93881	0.00002
1268	1.93875	0.00002
1270	1.93869	0.00002
1272	1.93864	0.00002
1274	1.93858	0.00002
1276	1.93852	0.00002
1278	1.93846	0.00002
1280	1.93840	0.00002
1282	1.93834	0.00002
1284	1.93828	0.00002
1286	1.93823	0.00002
1288	1.93817	0.00002
1290	1.93811	0.00002
1292	1.93805	0.00002
1294	1.93800	0.00002
1296	1.93794	0.00002
1298	1.93788	0.00002
1300	1.93782	0.00002